Detailed Percentile spectrum:
       Value   Percentile   TotalCount 1/(1-Percentile)

       0.128     0.000000            1         1.00
       0.765     0.100000         5020         1.11
       1.059     0.200000        10046         1.25
       1.350     0.300000        15060         1.43
       1.664     0.400000        20083         1.67
       2.003     0.500000        25097         2.00
       2.183     0.550000        27605         2.22
       2.389     0.600000        30125         2.50
       2.633     0.650000        32618         2.86
       2.925     0.700000        35126         3.33
       3.313     0.750000        37641         4.00
       3.575     0.775000        38895         4.44
       3.959     0.800000        40148         5.00
       4.431     0.825000        41400         5.71
       5.031     0.850000        42658         6.67
       5.719     0.875000        43908         8.00
       6.099     0.887500        44538         8.89
       6.559     0.900000        45164        10.00
       7.019     0.912500        45790        11.43
       7.539     0.925000        46422        13.33
       8.147     0.937500        47044        16.00
       8.495     0.943750        47360        17.78
       8.903     0.950000        47671        20.00
       9.295     0.956250        47985        22.86
       9.815     0.962500        48301        26.67
      10.423     0.968750        48612        32.00
      10.807     0.971875        48769        35.56
      11.239     0.975000        48929        40.00
      11.719     0.978125        49086        45.71
      12.303     0.981250        49242        53.33
      12.935     0.984375        49397        64.00
      13.351     0.985938        49476        71.11
      13.775     0.987500        49554        80.00
      14.311     0.989062        49633        91.43
      15.159     0.990625        49710       106.67
      16.071     0.992188        49788       128.00
      16.575     0.992969        49829       142.22
      17.343     0.993750        49868       160.00
      18.047     0.994531        49907       182.86
      19.167     0.995313        49946       213.33
      20.959     0.996094        49984       256.00
      21.583     0.996484        50004       284.44
      22.159     0.996875        50024       320.00
      22.863     0.997266        50044       365.71
      23.647     0.997656        50063       426.67
      24.767     0.998047        50082       512.00
      25.983     0.998242        50093       568.89
      26.863     0.998437        50102       640.00
      27.487     0.998633        50112       731.43
      28.751     0.998828        50122       853.33
      29.551     0.999023        50132      1024.00
      31.231     0.999121        50136      1137.78
      31.711     0.999219        50141      1280.00
      32.495     0.999316        50146      1462.86
      33.631     0.999414        50152      1706.67
      34.943     0.999512        50156      2048.00
      35.071     0.999561        50158      2275.56
      35.775     0.999609        50161      2560.00
      37.023     0.999658        50163      2925.71
      39.039     0.999707        50167      3413.33
      39.647     0.999756        50168      4096.00
      39.871     0.999780        50169      4551.11
      40.735     0.999805        50171      5120.00
      41.951     0.999829        50172      5851.43
      42.623     0.999854        50173      6826.67
      42.719     0.999878        50174      8192.00
      44.607     0.999890        50175      9102.22
      44.703     0.999902        50176     10240.00
      44.703     0.999915        50176     11702.86
      47.295     0.999927        50177     13653.33
      47.295     0.999939        50177     16384.00
      48.127     0.999945        50178     18204.44
      48.127     0.999951        50178     20480.00
      48.127     0.999957        50178     23405.71
      48.415     0.999963        50179     27306.67
      48.415     0.999969        50179     32768.00
      48.415     0.999973        50179     36408.89
      48.415     0.999976        50179     40960.00
      48.415     0.999979        50179     46811.43
      50.655     0.999982        50180     54613.33
      50.655     1.000000        50180          inf

